File: data/electrodes/liquid calibration measurement.txt
WE(1).Potential (V)	Corrected time (s)
-0.0255737	0
-0.026123	3
-0.0265808	6
-0.0270386	9
-0.0270386	12
-0.0276184	15
-0.0279541	18
-0.0275574	21
-0.0281067	24
-0.0283203	27
-0.0284119	30
-0.0282593	33
-0.0279541	36
-0.0283508	39
-0.0283813	42
-0.0280151	45
-0.0281067	48
-0.0280457	51
-0.0281372	54
-0.0285034	57
-1.88934	60
-3.76129	63
-3.7735	66
-0.00961304	69
-0.00939941	72
-0.0102234	75
-0.010498	78
-0.0109863	81
-0.0111084	84
-0.011261	87
-0.0112	90
-0.0111694	93
-0.0113831	96
-0.0112915	99
-0.011261	102
-0.011322	105
-0.0112305	108
-0.0112915	111
-0.0112305	114
-0.0110779	117
-0.0112915	120
-0.0111084	123
0.00823975	126
-2.8125	129
-3.75732	132
-3.75153	135
-0.0158691	138
-0.0164795	141
-0.0166626	144
-0.0170288	147
-0.017395	150
-0.0169983	153
-0.0171204	156
-0.0166626	159
-0.0171509	162
-0.0171509	165
-0.0171814	168
-0.0180054	171
-0.0183411	174
-0.018219	177
-0.0181274	180
-0.0188599	183
-0.019165	186
-0.0191956	189
-0.0189819	192
-0.0188293	195
-0.0190125	198
-2.65686	201
-3.77136	204
-3.75854	207
0.000488281	210
-0.0116882	213
-0.0125732	216
-0.01297	219
-0.013092	222
-0.0129089	225
-0.0129395	228
-0.0128174	231
-0.0128174	234
-0.0131226	237
-0.0136108	240
-0.0138245	243
-0.0138855	246
-0.0137329	249
-0.0130615	252
-0.01297	255
-0.0130005	258
-0.0131226	261
-0.0131836	264
-0.0133362	267
-0.0134583	270
-0.0135803	273
-0.189117	276
-2.89368	279
-3.76038	282
-0.00262451	285
-0.00973511	288
-0.00912476	291
-0.00891113	294
-0.00927734	297
-0.00991821	300
-0.009765625	303
-0.0090332	306
-0.00891113	309
-0.00933838	312
-0.0100098	315
-0.00982666	318
-0.00906372	321
-0.00894165	324
-0.00933838	327
-0.00991821	330
-0.009765625	333
-0.00946045	336
-0.00878906	339
-0.00869751	342
-0.00909424	345
-0.00836182	348
-2.08496	351
-3.75519	354
-3.77502	357
-0.00106812	360
-3.05176e-05	363
0.00106812	366
0.000610352	369
-9.15527e-05	372
0.000854492	375
0.000640869	378
-0.000213623	381
0.00088501	384
0.000793457	387
-0.000305176	390
0.000823975	393
0.000823975	396
-0.000274658	399
0.00109863	402
0.000335693	405
0.000183105	408
0.000915527	411
-0.000305176	414
0.0012207	417
-0.000457764	420
0.00112915	423
-0.000366211	426
-3.21075	429
-3.7619	432
-3.76099	435
0.0112	438
0.0150757	441
0.0137939	444
0.0154419	447
0.0144653	450
0.014801	453
0.0149841	456
0.0136414	459
0.0154114	462
0.0144958	465
0.0135498	468
0.0152283	471
0.0141296	474
0.0138245	477
0.0152588	480
0.0140686	483
0.0135498	486
0.0151978	489
0.0137329	492
0.0144348	495
0.0145569	498
0.0134583	501
0.00491333	504
-3.17688	507
-3.75732	510
0.0356445	513
0.0329285	516
0.0317688	519
0.0319519	522
0.0310669	525
0.0315857	528
0.0301819	531
0.0312805	534
0.0297546	537
0.0301819	540
0.0304871	543
0.0292053	546
0.0303345	549
0.0293884	552
0.0291443	555
0.0300598	558
0.0296631	561
0.028717	564
0.02948	567
0.0296021	570
0.0284729	573
0.0291138	576
-1.57135	579
-3.75183	582
-3.75732	585
0.0652771	588
0.0535889	591
0.0509033	594
0.0499878	597
0.0499878	600
0.0500793	603
0.0497742	606
0.048645	609
0.0478821	612
0.0481262	615
0.0484314	618
0.0484314	621
0.0476685	624
0.0469666	627
0.0467834	630
0.0472412	633
0.0475464	636
0.0473328	639
0.0464478	642
0.0459595	645
0.0459595	648
0.0461426	651
0.0462341	654
0.00137329	657
-2.65991	660
-3.76129	663
-3.75671	666
0.0645447	669
0.0630188	672
0.0620728	675
0.0614014	678
0.0608521	681
0.0604858	684
0.0602417	687
0.059967	690
0.0597839	693
0.0595703	696
0.0592957	699
0.0591125	702
0.0590515	705
0.0588074	708
0.0584717	711
0.0581665	714
0.0578613	717
0.0574036	720
0.0571289	723
0.0569458	726
0.0570068	729
-3.75305	732
-3.76221	735
-3.7561	738
0.0773621	741
0.0759888	744
0.0750732	747
0.0745544	750
0.0744324	753
0.0746155	756
0.0742493	759
0.073822	762
0.0733337	765
0.0729065	768
0.0727234	771
0.0728149	774
0.0730286	777
0.0727234	780
0.0723877	783
0.0718994	786
0.0715942	789
0.0717468	792
0.0719299	795
0.0715637	798
0.071106	801
0.0710449	804
-0.873413	807
-3.38013	810
-3.76587	813
0.0923462	816
0.0929871	819
0.0913391	822
0.091217	825
0.0905151	828
0.0899048	831
0.0900574	834
0.089447	837
0.0893555	840
0.0892029	843
0.0886841	846
0.0888977	849
0.0884094	852
0.0883789	855
0.0882263	858
0.0879211	861
0.0879211	864
0.0875244	867
0.0876465	870
0.0871887	873
0.0873413	876
0.0868835	879
0.0870361	882
0.0866699	885
0.0868225	888
0.0866699	889