File: data/electrodes/solid calibration measurement.txt
WE(1).Potential (V)	Corrected time (s)
0.124969	0
0.124176	6
0.125	12
0.124481	18
0.125061	24
0.12442	30
0.125427	36
0.124634	42
0.125549	48
0.125061	54
0.124878	60
0.125519	66
0.125275	72
0.124725	78
0.125153	84
0.125519	90
0.125336	96
0.125305	102
0.125214	108
0.125092	114
2.65106	120
3.75244	126
0.153931	132
0.151825	138
0.15033	144
0.149139	150
0.148468	156
0.14798	162
0.147461	168
0.14682	174
0.146423	180
0.146423	186
0.146454	192
0.146454	198
0.146484	204
0.063385	210
0.0588989	216
0.0561523	222
0.0540466	228
0.05896	234
0.0558167	240
0.152252	246
0.149445	252
0.147919	258
0.147278	264
0.14682	270
0.146484	276
0.902405	282
0.124268	288
0.511475	294
0.147095	300
0.146301	306
0.145508	312
0.144775	318
0.144684	324
0.144501	330
0.14386	336
0.143311	342
0.143311	348
0.143158	354
0.142975	360
0.142548	366
0.142059	372
0.142303	378
0.142059	384
0.141479	390
0.141602	396
0.141296	402
0.141052	408
0.141144	414
0.138824	420
3.7616	426
0.189423	432
0.134277	438
0.133636	444
0.133087	450
0.132751	456
0.132477	462
0.132233	468
0.132111	474
0.131989	480
0.132019	486
0.131958	492
0.131622	498
0.13147	504
0.131409	510
0.131409	516
0.131195	522
0.131042	528
0.130951	534
0.130829	540
0.130402	546
0.129822	552
0.130005	558
0.130371	564
2.54578	570
0.107452	576
0.126312	582
0.126526	588
0.125183	594
0.125031	600
0.125244	606
0.125244	612
0.124786	618
0.124329	624
0.123993	630
0.123779	636
0.123413	642
0.123688	648
0.12381	654
0.123657	660
0.122986	666
0.12265	672
0.123199	678
0.122955	684
0.0458984	690
0.0420532	696
0.124664	702
0.126343	708
0.124512	714
0.124664	720
0.0675964	726
3.63007	732
0.108521	738
0.11264	744
0.111328	750
0.111237	756
0.110443	762
0.109955	768
0.110291	774
0.109741	780
0.109192	786
0.109283	792
0.109344	798
0.109375	804
0.109039	810
0.108734	816
0.108246	822
0.108154	828
0.108185	834
0.108246	840
0.108185	846
0.108032	852
0.10791	858
0.10788	864
0.119049	870
3.75854	876
0.0950928	882
0.0939331	888
0.0934753	894
0.0933228	900
0.0930786	906
0.092926	912
0.0927734	918
0.0925293	924
0.0926514	930
0.0926514	936
0.0923767	942
0.0921631	948
0.0921631	954
0.0920715	960
0.0919189	966
0.0921631	972
0.0921326	978
0.0917053	984
0.0915222	990
0.0917969	996
0.0917664	1002
0.0914917	1008
0.0912476	1014
1.76727	1020
2.39319	1026
0.0700989	1032
0.071106	1038
0.0718384	1044
0.0724792	1050
0.0731201	1056
0.0736084	1062
0.0739441	1068
0.0740662	1074
0.0742493	1080
0.0744019	1086
0.0745544	1092
0.0747375	1098
0.0748901	1104
0.0750732	1110
0.0754089	1116
0.0756226	1122
0.0758362	1128
0.0760498	1134
0.0760498	1140
0.0757446	1146
0.0754395	1152
0.075531	1158
3.79059	1164
3.7561	1170
0.0615234	1176
0.0611877	1182
0.0603027	1188
0.059845	1194
0.0594788	1200
0.0592041	1206
0.0588989	1212
0.0587769	1218
0.0587769	1224
0.0586243	1230
0.0586548	1236
0.0588684	1242
0.0591736	1248
0.0592041	1254
0.0591736	1260
0.059082	1266
0.0589905	1272
0.059021	1278
0.05896	1284
0.05896	1290
0.0589294	1296
0.0587769	1302
0.05859375	1308
0.0603333	1314
3.61115	1320
0.0398865	1326
0.0393982	1332
0.039917	1338
0.0401611	1344
0.0400085	1350
0.0404968	1356
0.040741	1362
0.0409851	1368
0.0411682	1374
0.0412903	1380
0.0413513	1386
0.0415039	1392
0.0415955	1398
0.0416565	1404
0.0418091	1410
0.0418396	1416
0.0415039	1422
0.0415955	1428
0.0419922	1434
0.0420837	1440
0.041748	1446
0.0418396	1452
0.0423279	1458
0.0419312	1464
0.0357666	1470
3.72284	1476
0.0180359	1482
0.0194092	1488
0.0201721	1494
0.0206299	1500
0.0205078	1506
0.0207214	1512
0.0209045	1518
0.0214844	1524
0.0218811	1530
0.0219421	1536
0.0215759	1542
0.0220337	1548
0.022644	1554
0.0227661	1560
0.0221558	1566
0.0223389	1572
0.0229187	1578
0.0233765	1584
0.0232544	1590
0.0228271	1596
0.0227051	1602
0.0230713	1608
0.0236206	1614
0.0238647	1620
0.0230103	1626
2.6944	1632
-0.00540161	1638
0.00421143	1644
0.00442505	1650
0.00469971	1656
0.00482178	1662
0.00506592	1668
0.00518799	1674
0.00540161	1680
0.00515747	1686
0.00506592	1692
0.00500488	1698
0.00521851	1704
0.00592041	1710
0.0062561	1716
0.00616455	1722
0.00588989	1728
0.00579834	1734
0.00646973	1740
0.00680542	1746
0.00668335	1752
0.00634766	1758
0.00698853	1764
0.0065918	1770
0.00698853	1776
0.00701904	1782
0.00723267	1786